## w(eV)         sigma(Sm^-1)     kappa(W(mK)^-1)        L12/e(Am^-1)      L22/e^2(Wm^-1)
    0.01              250819             604.309         -4.6625e+06         1.43919e+08
    0.03              261503             619.196        -4.83345e+06         1.47996e+08
    0.05              283291             648.997        -5.18082e+06         1.56228e+08
    0.07              317018             693.782        -5.71545e+06         1.68766e+08
    0.09              363914             753.677        -6.45332e+06         1.85835e+08
    0.11              425574             828.863        -7.41519e+06         2.07722e+08
    0.13              503909             919.549        -8.62601e+06         2.34773e+08
    0.15              601083             1025.93        -1.01141e+07         2.67375e+08
    0.17              719414             1148.17        -1.19101e+07         3.05944e+08
    0.19              861257             1286.31        -1.40453e+07         3.50905e+08
    0.21         1.02884e+06             1440.33        -1.65499e+07         4.02666e+08
    0.23         1.22411e+06             1610.06        -1.94508e+07         4.61592e+08
    0.25         1.44848e+06             1795.17        -2.27688e+07         5.27966e+08
    0.27         1.70264e+06             1995.17         -2.6516e+07         6.01953e+08
    0.29         1.98633e+06             2209.39        -3.06926e+07         6.83558e+08
    0.31         2.29811e+06             2436.87        -3.52838e+07         7.72577e+08
    0.33         2.63517e+06             2676.39        -4.02575e+07         8.68555e+08
    0.35         2.99325e+06             2926.33        -4.55621e+07         9.70746e+08
    0.37         3.36654e+06              3184.6        -5.11248e+07         1.07807e+09
    0.39         3.74775e+06             3448.57        -5.68521e+07         1.18912e+09
    0.41         4.12825e+06             3714.94        -6.26305e+07         1.30211e+09
    0.43         4.49836e+06             3979.73        -6.83293e+07         1.41492e+09
    0.45         4.84765e+06             4238.21        -7.38045e+07         1.52515e+09
    0.47         5.16549e+06             4484.99        -7.89046e+07         1.63017e+09
    0.49         5.44151e+06             4714.07        -8.34771e+07         1.72718e+09
    0.51         5.66615e+06             4919.08        -8.73759e+07         1.81339e+09
    0.53         5.83126e+06             5093.53         -9.0469e+07          1.8861e+09
    0.55         5.93055e+06             5231.09        -9.26462e+07         1.94286e+09
    0.57         5.95999e+06             5326.05        -9.38256e+07         1.98161e+09
    0.59          5.9181e+06             5373.63        -9.39588e+07          2.0008e+09
    0.61         5.80604e+06             5370.42        -9.30345e+07         1.99951e+09
    0.63         5.62761e+06             5314.62        -9.10797e+07         1.97754e+09
    0.65         5.38897e+06             5206.31        -8.81585e+07          1.9354e+09
    0.67         5.09834e+06             5047.54        -8.43691e+07         1.87434e+09
    0.69         4.76549e+06             4842.25        -7.98381e+07         1.79628e+09
    0.71         4.40123e+06             4596.15        -7.47138e+07         1.70372e+09
    0.73         4.01677e+06             4316.34        -6.91578e+07         1.59961e+09
    0.75         3.62319e+06             4010.95        -6.33369e+07         1.48716e+09
    0.77         3.23088e+06             3688.63        -5.74142e+07         1.36971e+09
    0.79         2.84914e+06             3358.03        -5.15421e+07         1.25053e+09
    0.81         2.48578e+06             3027.35        -4.58551e+07         1.13267e+09
    0.83         2.14701e+06             2703.87        -4.04657e+07         1.01882e+09
    0.85         1.83725e+06             2393.62        -3.54607e+07         9.11183e+08
    0.87         1.55921e+06             2101.22        -3.09007e+07         8.11449e+08
    0.89         1.31402e+06             1829.73        -2.68198e+07         7.20738e+08
    0.91         1.10141e+06             1580.79        -2.32282e+07         6.39622e+08
    0.93              919946              1354.8         -2.0115e+07         5.68165e+08
    0.95              767331             1151.24        -1.74524e+07         5.06004e+08
    0.97              640670             969.043        -1.52002e+07         4.52431e+08
    0.99              536731             807.002        -1.33097e+07           4.065e+08
    1.01              452173             664.038        -1.17286e+07         3.67126e+08
    1.03              383737             539.338        -1.04042e+07         3.33178e+08
    1.05              328395             432.288         -9.2866e+06         3.03566e+08
    1.07              283439             342.259        -8.33108e+06         2.77297e+08
    1.09              246550             268.358        -7.49928e+06         2.53527e+08
    1.11              215810             209.274        -6.76014e+06         2.31583e+08
    1.13              189696             163.274        -6.08982e+06         2.10969e+08
    1.15              167050             128.345        -5.47132e+06         1.91359e+08
    1.17              147027             102.391        -4.89359e+06         1.72576e+08
    1.19              129046             83.4313        -4.35042e+06         1.54565e+08
    1.21              112732             69.7265        -3.83928e+06         1.37358e+08
    1.23             97859.5             59.8492        -3.36013e+06         1.21044e+08
    1.25             84305.5             52.6884        -2.91433e+06         1.05736e+08
    1.27             72009.3             47.4212        -2.50377e+06         9.15485e+07
    1.29             60939.7             43.4649        -2.13016e+06         7.85774e+07
    1.31             51072.6             40.4252        -1.79455e+06         6.68852e+07
    1.33             42375.5             38.0475         -1.4971e+06         5.64958e+07
    1.35             34799.8              36.175        -1.23692e+06         4.73922e+07
    1.37             28278.6             34.7151        -1.01221e+06         3.95202e+07
    1.39             22728.1             33.6134             -820351         3.27942e+07
    1.41             18051.5             32.8352             -658139         2.71056e+07
    1.43             14145.2             32.3518             -522048         2.23317e+07
    1.45             10903.6             32.1323             -408448         1.83444e+07
    1.47             8225.25              32.138             -313818         1.50176e+07
    1.49             6016.29             32.3187             -234914         1.22342e+07
    1.51             4193.94             32.6076             -168888            9.89e+06
    1.53             2687.99             32.9065             -113350         7.89718e+06
    1.55              1441.3             33.0035            -66395.1         6.18508e+06
    1.57             409.245             31.3929            -26579.6         4.70021e+06
    1.59            -441.553             37.1557             7125.23         3.40488e+06
    1.61            -1135.11             35.6705             35403.1         2.27496e+06
    1.63            -1688.13             35.2201             58673.7         1.29719e+06
    1.65            -2112.17             34.6882             77175.7              466214
    1.67             -2415.6             33.9186             91045.6             -218371
    1.69            -2605.33             32.8648              100387             -754687
    1.71             -2688.2             31.5194              105326        -1.14086e+06
    1.73            -2671.88             29.8994              106050        -1.37679e+06
    1.75            -2565.49             28.0403              102830        -1.46529e+06
    1.77            -2379.71             25.9922             96027.2        -1.41263e+06
    1.79            -2126.61             23.8165             86085.3        -1.22854e+06
    1.81            -1819.25             21.5828             73509.4             -925662
    1.83            -1470.98             19.3684             58837.3             -518592
    1.85            -1094.75              17.263             42605.3            -22730.3
    1.87             -702.31             15.4055             25313.3              547040
    1.89            -303.502             14.3308             7391.21         1.17759e+06
    1.91             94.2728             6.49175            -10827.8         1.85861e+06
    1.93             486.442             8.86088            -29125.4         2.58328e+06
    1.95             871.373             8.12324              -47406          3.3486e+06
    1.97             1250.22             7.42616            -65690.8         4.15513e+06
    1.99             1626.49             6.94194            -84101.3         5.00628e+06
    2.01             2005.39             6.69624             -102830         5.90714e+06
    2.03             2392.95             6.67692             -122102         6.86291e+06
    2.05             2795.01              6.8538             -142134         7.87714e+06
    2.07             3216.19             7.18529             -163081          8.9499e+06
    2.09             3658.91             7.62236             -185002         1.00761e+07
    2.11             4122.59             8.11177             -207816         1.12442e+07
    2.13             4603.03             8.59948             -231281         1.24354e+07
    2.15             5092.22             9.03405             -254983         1.36236e+07
    2.17             5578.43             9.36987             -278342         1.47758e+07
    2.19             6046.76             9.57004             -300637         1.58539e+07
    2.21             6479.96             9.60852             -321044         1.68161e+07
    2.23             6859.59             9.47141             -338692         1.76201e+07
    2.25             7167.36             9.15729             -352723         1.82258e+07
    2.27             7386.55             8.67662             -362357         1.85979e+07
    2.29              7503.3             8.05027             -366955         1.87088e+07
    2.31              7507.8             7.30737             -366068         1.85411e+07
    2.33             7395.12             6.48267             -359482         1.80888e+07
    2.35             7165.69             5.61368             -347236         1.73582e+07
    2.37             6825.37             4.73778             -329625         1.63678e+07
    2.39              6385.1             3.88948             -307186         1.51472e+07
    2.41              5860.2             3.09809             -280665         1.37355e+07
    2.43             5269.37             2.38582             -250969         1.21791e+07
    2.45             4633.45             1.76622             -219110         1.05287e+07
    2.47             3974.22             1.24314             -186148         8.83676e+06
    2.49             3313.04            0.809607             -153129         7.15436e+06
    2.51             2669.81            0.446149             -121031           5.529e+06
    2.53             2061.93            0.116594              -90717         4.00225e+06
    2.55             1503.66           -0.244183            -62901.2         2.60816e+06
    2.57             1005.67           -0.772502            -38125.4         1.37217e+06
    2.59             574.873             -1.8716            -16747.8              310611
    2.61             214.501            -6.06442              1056.5             -569294
    2.63             -75.595             19.2248             15283.9        -1.26889e+06
    2.65            -298.487             5.08876               26083        -1.79716e+06
    2.67             -459.59             3.22809             33728.4        -2.16945e+06
    2.69            -566.006             2.37526             38589.5        -2.40596e+06
    2.71            -625.844             1.78019             41096.6        -2.53001e+06
    2.73            -647.538             1.26581             41706.1        -2.56626e+06
    2.75            -639.206            0.777717             40865.6        -2.53893e+06
    2.77            -608.079            0.305437             38982.2         -2.4701e+06
    2.79             -560.01           -0.137023             36393.7        -2.37812e+06
    2.81            -499.098           -0.512252             33345.2        -2.27635e+06
    2.83            -427.438           -0.744372             29972.4        -2.17221e+06
    2.85            -345.007           -0.664404             26291.7        -2.06654e+06
    2.87              -249.7            0.213265             22200.1        -1.95355e+06
    2.89            -137.519             4.23721             17482.7        -1.82117e+06
    2.91            -2.91234             489.801             11829.8        -1.65184e+06
    2.93             160.758            -16.5825             4861.84        -1.42387e+06
    2.95             360.624            -12.1809            -3837.91        -1.11308e+06
    2.97             603.638            -11.1062            -14686.2             -694811
    2.99             895.861            -10.8188            -28059.5             -146029
    3.01             1241.75            -10.8158            -44253.2              552481
    3.03             1643.49            -10.9266            -63444.7          1.4141e+06
    3.05             2100.48            -11.0711            -85661.8         2.44466e+06
    3.07             2608.94            -11.2008             -110760         3.64114e+06
    3.09             3161.72            -11.2779             -138413           4.991e+06
    3.11             3748.39            -11.2688             -168111         6.47203e+06
    3.13              4355.5            -11.1415             -199179         8.05307e+06
    3.15             4967.19            -10.8659             -230805          9.6952e+06
    3.17              5565.9             -10.415             -262079         1.13537e+07
    3.19             6133.35            -9.76704             -292043         1.29805e+07
    3.21             6651.58            -8.90751             -319749         1.45269e+07
    3.23             7104.07            -7.83114             -344319         1.59465e+07
    3.25             7476.85            -6.54329             -365001         1.71986e+07
    3.27             7759.53            -5.06059             -381234          1.8251e+07
    3.29             7946.27            -3.41069             -392691          1.9083e+07
    3.31             8036.57            -1.63109             -399335         1.96883e+07
    3.33             8036.01            0.232967             -401453         2.00773e+07
    3.35             7956.79             2.13113             -399697           2.028e+07
    3.37             7818.38             4.01096             -395116         2.03479e+07
    3.39             7647.98             5.82058             -389194         2.03569e+07
    3.41             7481.17             7.51054             -383878         2.04092e+07
    3.43             7362.45             9.03444             -381616         2.06361e+07
    3.45             7345.87             10.3486             -385392         2.11995e+07
    3.47             7495.48             11.4132             -398745         2.22937e+07
    3.49             7885.53              12.197             -425780         2.41455e+07
    3.51             8600.23             12.6878             -471145         2.70126e+07
    3.53             9732.66             12.9024             -539968         3.11797e+07
    3.55             11382.8             12.8882             -637741         3.69516e+07
    3.57               13654             12.7123             -770127         4.46417e+07
    3.59             16648.9             12.4463             -942700          5.4557e+07
    3.61             20462.4             12.1534         -1.1606e+06         6.69791e+07
    3.63               25175             11.8832        -1.42813e+06         8.21406e+07
    3.65             30843.8             11.6695        -1.74827e+06           1.002e+08
    3.67             37494.3             11.5309        -2.12224e+06         1.21215e+08
    3.69             45111.1             11.4719        -2.54899e+06         1.45117e+08
    3.71             53631.2              11.484        -3.02483e+06          1.7169e+08
    3.73             62938.6             11.5476        -3.54317e+06         2.00559e+08
    3.75             72862.1             11.6345        -4.09437e+06         2.31179e+08
    3.77             83177.3             11.7103        -4.66589e+06         2.62846e+08
    3.79             93611.9             11.7378        -5.24261e+06         2.94717e+08
    3.81              103857             11.6805        -5.80736e+06         3.25837e+08
    3.83              113578             11.5052        -6.34175e+06         3.55188e+08
    3.85              122438             11.1853        -6.82712e+06         3.81739e+08
    3.87              130111             10.7028        -7.24557e+06         4.04504e+08
    3.89              136303             10.0495        -7.58106e+06         4.22605e+08
    3.91              140774             9.22792        -7.82042e+06         4.35323e+08
    3.93              143348             8.25072        -7.95419e+06          4.4215e+08
    3.95              143929             7.13988        -7.97727e+06         4.42816e+08
    3.97              142505              5.9249        -7.88918e+06         4.37311e+08
    3.99              139148             4.64069        -7.69414e+06         4.25883e+08
    4.01              134009             3.32512        -7.40069e+06         4.09022e+08
    4.03              127305             2.01651        -7.02113e+06          3.8742e+08
    4.05              119310            0.751242        -6.57065e+06         3.61931e+08
    4.07              110329           -0.438333        -6.06637e+06         3.33512e+08
    4.09              100686            -1.52557        -5.52625e+06         3.03168e+08
    4.11             90701.3            -2.49066        -4.96812e+06          2.7189e+08
    4.13             80675.4            -3.32118        -4.40869e+06         2.40609e+08
    4.15             70877.1            -4.01201        -3.86286e+06          2.1015e+08
    4.17             61531.8            -4.56476        -3.34312e+06         1.81204e+08
    4.19             52816.4            -4.98653        -2.85922e+06         1.54312e+08
    4.21             44856.7            -5.28842         -2.4181e+06         1.29852e+08
    4.23             37729.3            -5.48355        -2.02396e+06         1.08054e+08
    4.25             31466.1            -5.58498        -1.67848e+06         8.90055e+07
    4.27             26060.5            -5.60356        -1.38124e+06         7.26768e+07
    4.29             21475.3            -5.54591        -1.13009e+06          5.8943e+07
    4.31             17650.2            -5.41298             -921608         4.76091e+07
    4.33               14510             -5.1995             -751551         3.84342e+07
    4.35             11971.4            -4.89491             -615217         3.11527e+07
    4.37             9948.23            -4.48641             -507770         2.54922e+07
    4.39             8356.58            -3.96413             -424489         2.11872e+07
    4.41             7117.59            -3.32752             -360946          1.7989e+07
    4.43             6159.57            -2.59079             -313115         1.56715e+07
    4.45             5419.07            -1.78481             -277435         1.40345e+07
    4.47             4841.18           -0.954212             -250816         1.29041e+07
    4.49              4379.3           -0.150951             -230634          1.2132e+07
    4.51             3994.68             0.57243             -214698         1.15934e+07
    4.53             3655.69             1.16673             -201209         1.11851e+07
    4.55             3337.21             1.58595             -188725          1.0823e+07
    4.57             3019.97             1.78319             -176124         1.04404e+07
    4.59             2690.06             1.70223             -162577         9.98677e+06
    4.61             2338.46             1.26173             -147524         9.42622e+06
    4.63             1960.65            0.320666             -130655          8.7371e+06
    4.65             1556.29            -1.41355             -111895         7.91114e+06
    4.67             1128.79            -4.69503            -91379.4         6.95269e+06
    4.69             684.863            -12.2729              -69438         5.87766e+06
    4.71             233.928            -48.0891            -46561.6         4.71212e+06
    4.73            -212.542             63.9648            -23367.7         3.49041e+06
    4.75            -641.818             23.7854            -558.933         2.25277e+06
    4.77            -1040.77             15.5327             21124.5         1.04269e+06
    4.79            -1396.73             11.6627             40953.9            -95981.7
    4.81             -1698.4             9.25292             58260.5        -1.12197e+06
    4.83            -1936.52             7.53185             72479.8        -1.99926e+06
    4.85            -2104.55             6.21571             83188.1        -2.69942e+06
    4.87            -2199.03             5.17919             90128.1        -3.20329e+06
    4.89            -2219.81             4.35878             93222.5        -3.50203e+06
    4.91            -2169.92             3.71733             92574.8        -3.59735e+06
    4.93            -2055.34             3.22922             88455.9        -3.50097e+06
    4.95            -1884.52             2.87391             81281.3        -3.23349e+06
    4.97            -1667.72             2.63348             71578.1        -2.82263e+06
    4.99            -1416.32             2.49292             59946.7        -2.30112e+06
    5.01            -1142.09             2.44367             47021.2        -1.70442e+06
    5.03            -856.499             2.49515             33429.7        -1.06841e+06
    5.05            -570.093              2.7189               19760             -427333
    5.07            -292.074             3.52674             6531.71              188027
    5.09            -29.9856             19.8714            -5823.04              751664
    5.11             210.393            -1.32499            -16969.8         1.24322e+06
    5.13             425.001            -0.27028            -26672.8         1.64837e+06
    5.15             611.304           -0.222311            -34788.3         1.95869e+06
    5.17             768.005            -0.46969            -41251.6         2.17124e+06
    5.19             894.701           -0.881014            -46060.5          2.2878e+06
    5.21             991.543            -1.40448            -49257.2         2.31391e+06
    5.23             1058.93            -2.00334            -50912.2         2.25801e+06
    5.25             1097.33            -2.64068            -51110.7         2.13045e+06
    5.27             1107.12            -3.27543            -49944.8         1.94284e+06
    5.29              1088.7            -3.86237            -47510.6         1.70746e+06
    5.31             1042.58            -4.35417            -43911.1         1.43696e+06
    5.33             969.586            -4.70472            -39262.7         1.14423e+06
    5.35             871.188            -4.87314            -33704.5              842317
    5.37             749.693            -4.82873            -27406.5              544461
    5.39             608.448            -4.55801            -20575.3              263985
    5.41             451.894            -4.08028            -13454.6             14061.3
    5.43             285.474            -3.51101            -6318.49             -192757
    5.45              115.37            -3.67116             542.429             -345228
    5.47            -51.9041             4.93456             6841.47             -434309
    5.49            -210.042             2.83586             12321.5             -454153
    5.51             -353.53             4.15452             16782.1             -403083
    5.53            -478.228              5.9209             20105.8             -284395
    5.55             -581.86             7.87638               22278             -106824
    5.57            -664.344             9.91826             23399.2              115427
    5.59            -727.919             11.9695             23685.5              363211
    5.61            -777.025             13.9514             23457.6              613492
    5.63            -817.953             15.7736             23117.7              840895
    5.65            -858.289             17.3357             23117.3         1.01961e+06
    5.67            -906.211              18.544             23917.6         1.12547e+06
    5.69            -969.709             19.3423             25948.7         1.13798e+06
    5.71            -1055.82             19.7426             29570.4         1.04209e+06
    5.73            -1169.97             19.8336             35039.2              829512
    5.75            -1315.43             19.7565               42485              499430
    5.77            -1493.05             19.6622             51899.6             58575.1
    5.79            -1701.15             19.6759             63137.3             -479351
    5.81            -1935.69             19.8811             75926.7         -1.0948e+06
    5.83            -2190.59             20.3198             89892.7        -1.76388e+06
    5.85            -2458.18             21.0009              104584        -2.46008e+06
    5.87            -2729.81             21.9099              119503        -3.15595e+06
    5.89            -2996.36             23.0167              134139        -3.82463e+06
    5.91            -3248.81             24.2821              147991        -4.44103e+06
    5.93            -3478.62             25.6634              160591        -4.98255e+06
    5.95             -3678.1             27.1184              171520        -5.42945e+06
    5.97            -3840.52             28.6112              180413        -5.76475e+06
    5.99            -3960.08             30.1168              186963        -5.97389e+06
    6.01            -4031.74             31.6271              190914        -6.04418e+06
    6.03             -4050.8             33.1572              192052        -5.96427e+06
    6.05             -4012.2             34.7524              190193        -5.72365e+06
    6.07            -3909.57             36.4973              185166        -5.31236e+06
    6.09            -3733.81             38.5261              176788        -4.72086e+06
    6.11            -3471.13             41.0397              164837        -3.93999e+06
    6.13            -3100.29             44.3428              149008        -2.96101e+06
    6.15            -2588.85             48.9608              128856        -1.77541e+06
    6.17            -1888.17             56.1863              103716             -374370
    6.19             -926.78             73.2481             72595.9         1.25245e+06
    6.21             398.071             2.21135             34032.5         3.11904e+06
    6.23             2230.99               54.44            -14092.7         5.24626e+06
    6.25             4771.16             68.5546            -74779.5         7.66639e+06
    6.27             8287.11             80.5896             -152179          1.0429e+07
    6.29             13133.2             92.6433             -251901         1.36079e+07
    6.31             19766.8             105.061             -381342         1.73095e+07
    6.33             28765.3             117.851             -550023         2.16813e+07
    6.35             40840.5             130.966             -769889           2.692e+07
    6.37             56848.1             144.409        -1.05555e+06         3.32795e+07
    6.39             77790.5             158.284        -1.42437e+06         4.10754e+07
    6.41              104808             172.822        -1.89645e+06         5.06874e+07
    6.43              139155             188.397        -2.49427e+06         6.25556e+07
    6.45              182163             205.523         -3.2421e+06         7.71719e+07
    6.47              235180             224.837        -4.16509e+06         9.50639e+07
    6.49              299492              247.07        -5.28791e+06          1.1677e+08
    6.51              376227              273.01        -6.63315e+06          1.4281e+08
    6.53              466244             303.442        -8.21928e+06         1.73641e+08
    6.55              570010             339.091        -1.00586e+07         2.09619e+08
    6.57              687484             380.549        -1.21547e+07         2.50945e+08
    6.59              818001             428.205        -1.45007e+07         2.97619e+08
    6.61              960188             482.171        -1.70772e+07         3.49399e+08
    6.63         1.11191e+06             542.227        -1.98509e+07         4.05763e+08
    6.65         1.27027e+06             607.773        -2.27743e+07          4.6589e+08
    6.67         1.43165e+06             677.805        -2.57861e+07         5.28658e+08
    6.69          1.5918e+06             750.922        -2.88126e+07         5.92663e+08
    6.71         1.74605e+06             825.359        -3.17701e+07         6.56259e+08
    6.73         1.88949e+06             899.059         -3.4569e+07         7.17626e+08
    6.75         2.01722e+06             969.769        -3.71177e+07         7.74852e+08
    6.77         2.12465e+06             1035.17        -3.93279e+07         8.26035e+08
    6.79         2.20777e+06             1093.01        -4.11195e+07         8.69389e+08
    6.81         2.26337e+06             1141.26        -4.24255e+07         9.03354e+08
    6.83         2.28929e+06             1178.27        -4.31966e+07         9.26696e+08
    6.85         2.28454e+06             1202.85        -4.34041e+07         9.38586e+08
    6.87         2.24937e+06             1214.41         -4.3042e+07         9.38658e+08
    6.89         2.18523e+06             1212.97        -4.21271e+07         9.27039e+08
    6.91         2.09474e+06              1199.2        -4.06986e+07         9.04334e+08
    6.93         1.98142e+06             1174.31        -3.88146e+07         8.71595e+08
    6.95         1.84956e+06             1140.03        -3.65492e+07         8.30246e+08
    6.97         1.70389e+06             1098.42        -3.39872e+07         7.81994e+08
    6.99         1.54933e+06             1051.71        -3.12196e+07         7.28718e+08
    7.01         1.39073e+06             1002.15        -2.83379e+07         6.72357e+08
    7.03         1.23259e+06             951.857        -2.54292e+07         6.14798e+08
    7.05          1.0789e+06             902.583        -2.25729e+07         5.57775e+08
    7.07              933003             855.659        -1.98363e+07         5.02791e+08
    7.09              797472             811.873        -1.72734e+07         4.51054e+08
    7.11              674117             771.431        -1.49234e+07         4.03448e+08
    7.13              563998             733.964         -1.2811e+07         3.60525e+08
    7.15              467492             698.583         -1.0947e+07          3.2252e+08
    7.17              384398             663.988        -9.33059e+06         2.89385e+08
    7.19              314047             628.632         -7.9507e+06         2.60839e+08
    7.21              255425             590.943        -6.78899e+06         2.36427e+08
    7.23              207300             549.587        -5.82206e+06         2.15577e+08
    7.25              168321             503.766        -5.02376e+06         1.97663e+08
    7.27              137116              453.48        -4.36718e+06         1.82055e+08
    7.29              112363             399.691        -3.82634e+06         1.68163e+08
    7.31             92843.7             344.271        -3.37738e+06         1.55473e+08
    7.33             77476.1             289.701        -2.99942e+06         1.43564e+08
    7.35             65333.8             238.562        -2.67503e+06         1.32126e+08
    7.37             55649.5             192.984        -2.39035e+06         1.20956e+08
    7.39             47809.3             154.253          -2.135e+06         1.09955e+08
    7.41             41339.3             122.696        -1.90178e+06         9.91136e+07
    7.43             35888.5             97.8426        -1.68625e+06         8.84989e+07
    7.45             31209.6             78.7254        -1.48624e+06         7.82342e+07
    7.47             27139.1             64.1913        -1.30134e+06         6.84807e+07
    7.49             23578.7             53.1358        -1.13241e+06           5.942e+07
    7.51               20478             44.6355             -981139         5.12367e+07
    7.53             17819.8             37.9937             -849580          4.4104e+07
    7.55             15606.8             32.7292             -739825         3.81712e+07
    7.57             13851.2             28.5321             -653685         3.35526e+07
    7.59             12565.3             25.2015             -592439         3.03202e+07
    7.61             11755.3             22.5781             -556641         2.84972e+07
    7.63             11415.3             20.4952             -545979          2.8055e+07
    7.65             11524.8             18.7721             -559203         2.89118e+07
    7.67               12046             17.2475             -594105         3.09348e+07
    7.69             12924.4             15.8171             -647563         3.39439e+07
    7.71             14089.4             14.4402             -715657          3.7719e+07
    7.73             15457.7             13.1194             -793825         4.20096e+07
    7.75             16936.5             11.8742             -877086         4.65463e+07
    7.77             18428.8             10.7237             -960285         5.10542e+07
    7.79             19838.4             9.68081        -1.03837e+06         5.52667e+07
    7.81             21075.3             8.75168        -1.10666e+06          5.8939e+07
    7.83               22061             7.93926        -1.16109e+06         6.18615e+07
    7.85             22732.9             7.24727        -1.19847e+06         6.38696e+07
    7.87             23048.1             6.68468        -1.21661e+06         6.48524e+07
    7.89               22986              6.2706        -1.21443e+06         6.47567e+07
    7.91             22549.6             6.04021        -1.19206e+06         6.35891e+07
    7.93             21766.8             6.05213        -1.15078e+06         6.14139e+07
    7.95             20689.6             6.39756        -1.09301e+06          5.8349e+07
    7.97             19394.7             7.21006        -1.02222e+06         5.45604e+07
    7.99             17983.1             8.67046             -942853         5.02552e+07
    8.01             16580.8             10.9922             -860281         4.56763e+07
    8.03             15341.8             14.3545             -780794          4.1097e+07
    8.05             14451.2             18.7362             -711643         3.68195e+07
    8.07             14131.1             23.6602             -661162         3.31756e+07
    8.09             14648.7             28.0665             -638963         3.05298e+07
    8.11             16324.8             30.7204             -656186         2.92861e+07
    8.13             19543.8             31.0649             -725792         2.98963e+07
    8.15             24763.6             29.5973             -862851         3.28686e+07
    8.17             32522.6             27.3654        -1.08479e+06         3.87753e+07
    8.19             43443.6             25.3075        -1.41149e+06          4.8257e+07
    8.21             58231.7              23.997        -1.86527e+06         6.20212e+07
    8.23             77663.3             23.6922        -2.47051e+06         8.08327e+07
    8.25              102566             24.4567        -3.25306e+06         1.05494e+08
    8.27              133783             26.2466        -4.23916e+06         1.36812e+08
    8.29              172132             28.9575        -5.45405e+06         1.75556e+08
    8.31              218342             32.4465        -6.92011e+06         2.22399e+08
    8.33              272985             36.5424         -8.6547e+06          2.7785e+08
    8.35              336402              41.052        -1.06678e+07         3.42182e+08
    8.37              408624             45.7662        -1.29596e+07         4.15354e+08
    8.39              489294             50.4671        -1.55181e+07         4.96943e+08
    8.41              577614             54.9367        -1.83173e+07         5.86083e+08
    8.43              672299             58.9671         -2.1316e+07         6.81433e+08
    8.45              771566             62.3704        -2.44573e+07         7.81163e+08
    8.47              873161             64.9887        -2.76697e+07         8.82984e+08
    8.49              974418             66.7024        -3.08687e+07         9.84212e+08
    8.51         1.07236e+06             67.4367        -3.39603e+07         1.08187e+09
    8.53         1.16384e+06             67.1643         -3.6845e+07         1.17281e+09
    8.55         1.24569e+06             65.9063        -3.94231e+07         1.25389e+09
    8.57         1.31491e+06              63.729        -4.16003e+07         1.32216e+09
    8.59         1.36885e+06             60.7379        -4.32933e+07         1.37502e+09
    8.61         1.40538e+06             57.0693        -4.44353e+07         1.41036e+09
    8.63         1.42301e+06             52.8809          -4.498e+07         1.42678e+09
    8.65         1.42103e+06             48.3407         -4.4905e+07         1.42359e+09
    8.67         1.39951e+06              43.617        -4.42134e+07         1.40092e+09
    8.69         1.35934e+06             38.8685        -4.29334e+07         1.35969e+09
    8.71         1.30212e+06             34.2366        -4.11163e+07         1.30155e+09
    8.73         1.23012e+06             29.8399        -3.88334e+07         1.22875e+09
    8.75         1.14606e+06               25.77        -3.61712e+07         1.14405e+09
    8.77           1.053e+06             22.0913         -3.3226e+07          1.0505e+09
    8.79              954105             18.8406         -3.0098e+07          9.5125e+08
    8.81              852513             16.0307         -2.6886e+07         8.49429e+08
    8.83              751146             13.6532         -2.3682e+07         7.47938e+08
    8.85              652590             11.6835        -2.05678e+07         6.49343e+08
    8.87              559005             10.0851        -1.76111e+07         5.55783e+08
    8.89              472063             8.81406        -1.48648e+07          4.6891e+08
    8.91              392939             7.82343        -1.23656e+07         3.89881e+08
    8.93              322323             7.06601        -1.01353e+07         3.19373e+08
    8.95              260468             6.49711        -8.18187e+06         2.57626e+08
    8.97              207254             6.07605        -6.50133e+06         2.04515e+08
    8.99              162266             5.76691        -5.08055e+06         1.59619e+08
    9.01              124870             5.53846        -3.89953e+06         1.22301e+08
    9.03             94294.3              5.3633        -2.93385e+06         9.17912e+07
    9.05             69693.5             5.21604        -2.15689e+06         6.72459e+07
    9.07               50210             5.07015        -1.54158e+06         4.78109e+07
    9.09             35017.3             4.89188        -1.06187e+06         3.26636e+07
    9.11             23351.7             4.62657             -693688          2.1045e+07
    9.13             14533.1             4.15875             -415607         1.22792e+07
    9.15             7973.57             3.15053             -209116         5.78277e+06
    9.17             3179.82           -0.177795            -58681.5         1.06608e+06
    9.19            -251.984             74.1886             48408.2        -2.27152e+06
    9.21             -2644.6             11.6804              122313        -4.55045e+06
    9.23            -4250.51             9.04027              170984        -6.02176e+06
    9.25            -5263.55             8.03834              200536        -6.87876e+06
    9.27            -5830.25             7.43666              215601        -7.26841e+06
    9.29            -6060.22             6.97088              219661        -7.30152e+06
    9.31            -6035.16             6.55403              215326        -7.06166e+06
    9.33            -5816.28             6.15505              204573        -6.61228e+06
    9.35            -5450.22             5.76812              188924        -6.00232e+06
    9.37            -4973.39             5.40299              169578        -5.27027e+06
    9.39            -4415.23              5.0825              147514        -4.44699e+06
    9.41            -3800.26             4.84449              123545        -3.55747e+06
    9.43             -3149.4             4.75007             98359.7        -2.62191e+06
    9.45            -2480.76             4.90795             72539.3        -1.65616e+06
    9.47             -1809.9             5.55349             46565.6             -671956
    9.49            -1149.99             7.39085             20822.3              323135
    9.51            -511.764              14.396            -4407.53         1.32581e+06
    9.53             96.5206              -66.95            -28943.9         2.33717e+06
    9.55             669.136            -8.33547            -52712.8         3.36293e+06
    9.57             1202.89             -3.7605            -75747.5         4.41367e+06
    9.59             1697.11            -1.85779            -98190.6         5.50506e+06
    9.61              2153.6           -0.645101             -120295          6.6583e+06
    9.63             2576.55            0.289751             -142426         7.90041e+06
    9.65             2972.51              1.0456             -165059         9.26459e+06
    9.67             3350.25             1.60906             -188785         1.07904e+07
    9.69             3720.68             1.90732             -214297         1.25234e+07
    9.71             4096.59             1.82993             -242385         1.45147e+07
    9.73             4492.41             1.24636             -273916         1.68196e+07
    9.75             4923.72           0.0271981             -309798          1.9495e+07
    9.77             5406.66            -1.93018             -350943         2.25966e+07
    9.79             5957.02            -4.67578             -398200          2.6175e+07
    9.81             6589.28            -8.18799             -452293         3.02701e+07
    9.83             7315.36            -12.3675             -513732          3.4906e+07
    9.85             8143.32            -17.0465             -582735         4.00856e+07
    9.87             9076.01            -22.0094             -659140         4.57846e+07
    9.89             10109.9            -27.0203             -742336         5.19475e+07
    9.91             11234.2            -31.8477             -831216         5.84845e+07
    9.93             12430.1            -36.2853             -924148         6.52706e+07
    9.95             13671.1            -40.1653          -1.019e+06         7.21476e+07
    9.97             14923.2            -43.3644        -1.11318e+06         7.89284e+07
    9.99             16146.3            -45.8062        -1.20376e+06         8.54046e+07
   10.01             17296.2            -47.4598        -1.28758e+06         9.13558e+07
   10.03             18326.5            -48.3356        -1.36145e+06         9.65617e+07
   10.05             19191.6            -48.4814         -1.4223e+06         1.00815e+08
   10.07             19849.1            -47.9764        -1.46737e+06         1.03933e+08
   10.09               20263            -46.9256        -1.49442e+06          1.0577e+08
   10.11             20405.3            -45.4539        -1.50183e+06         1.06228e+08
   10.13             20258.1            -43.7009        -1.48871e+06         1.05261e+08
   10.15             19814.6            -41.8156        -1.45499e+06         1.02879e+08
   10.17             19079.5            -39.9533        -1.40137e+06         9.91453e+07
   10.19             18067.8            -38.2742        -1.32931e+06         9.41762e+07
   10.21             16804.6             -36.945        -1.24088e+06         8.81291e+07
   10.23             15322.4            -36.1466        -1.13867e+06         8.11942e+07
   10.25             13659.5            -36.0929        -1.02558e+06         7.35828e+07
   10.27             11857.7              -37.07             -904708         6.55149e+07
   10.29             9959.94            -39.5259             -779157         5.72083e+07
   10.31             8008.65            -44.2871             -651897         4.88684e+07
   10.33             6044.01             -53.178             -525661         4.06802e+07
   10.35             4102.84            -71.2953             -402860          3.2803e+07
   10.37             2217.92            -120.267             -285537          2.5367e+07
   10.39             417.645            -582.152             -175350         1.84726e+07
   10.41            -1274.02             173.546            -73579.2          1.2191e+07
   10.43            -2837.36             70.6449             18846.4         6.56719e+06
   10.45             -4256.6             42.5846              101313         1.62276e+06
   10.47            -5519.64             29.6858              173479        -2.64012e+06
   10.49            -6617.78             22.4487              235235        -6.23502e+06
   10.51            -7545.46             17.9802              286667        -9.18772e+06
   10.53             -8300.2             15.0983              328024        -1.15332e+07
   10.55            -8882.47             13.2235              359697        -1.33133e+07
   10.57            -9295.61             12.0308              382193        -1.45743e+07
   10.59            -9545.78              11.317              396126        -1.53662e+07
   10.61             -9641.8             10.9433              402198        -1.57406e+07
   10.63            -9594.92             10.8081              401186        -1.57507e+07
   10.65            -9418.59             10.8328              393928        -1.54497e+07
   10.67            -9128.02             10.9551              381306        -1.48905e+07
   10.69            -8739.78             11.1244              364225         -1.4125e+07
   10.71            -8271.32             11.2998              343601        -1.32031e+07
   10.73            -7740.47             11.4483              320332        -1.21721e+07
   10.75            -7164.95              11.544              295289        -1.10761e+07
   10.77            -6561.95             11.5677              269287        -9.95511e+06
   10.79            -5947.68             11.5063              243081        -8.84465e+06
   10.81            -5337.05             11.3524              217341        -7.77531e+06
   10.83            -4743.39             11.1041              192649        -6.77236e+06
   10.85            -4178.22             10.7648              169490        -5.85559e+06
   10.87            -3651.07             10.3434              148245        -5.03937e+06
   10.89            -3169.45              9.8538              129193        -4.33272e+06
   10.91            -2738.73             9.31515              112511        -3.73965e+06
   10.93            -2362.25             8.75136             98276.6        -3.25957e+06
   10.95            -2041.32             8.18995               86480        -2.88785e+06
   10.97             -1775.4             7.65956             77028.6        -2.61641e+06
   10.99            -1562.22             7.18547             69760.5        -2.43444e+06
   11.01            -1398.03             6.78371             64456.5        -2.32914e+06
   11.03            -1277.81             6.45596             60853.6        -2.28645e+06
   11.05            -1195.58             6.18871             58659.7        -2.29179e+06
   11.07            -1144.66             5.95868             57568.3         -2.3308e+06
   11.09            -1118.02             5.74213             57273.3        -2.38999e+06
   11.11            -1108.62             5.52295             57483.5         -2.4574e+06
   11.13            -1109.72             5.29555             57936.7        -2.52313e+06
   11.15            -1115.25             5.06303             58412.9        -2.57982e+06
   11.17            -1120.16             4.83318             58745.7        -2.62301e+06
   11.19            -1120.64             4.61516             58832.3        -2.65142e+06
   11.21            -1114.44             4.41772               58640        -2.66704e+06
   11.23            -1101.01             4.24904             58210.1        -2.67502e+06
   11.25            -1081.55             4.11754             57655.9        -2.68348e+06
   11.27            -1058.98             4.03274             57157.2        -2.70296e+06
   11.29            -1037.74             4.00526             56948.4        -2.74574e+06
   11.31            -1023.47             4.04462               57301        -2.82494e+06
   11.33            -1022.53              4.1543             58501.5        -2.95347e+06
   11.35            -1041.45             4.32525             60826.2        -3.14282e+06
   11.37             -1086.3             4.53225             64512.7         -3.4019e+06
   11.39            -1162.01             4.73771             69733.2        -3.73594e+06
   11.41             -1271.8             4.90289             76570.5        -4.14555e+06
   11.43             -1416.7                   5             84999.2        -4.62613e+06
   11.45            -1595.17             5.01761             94876.4        -5.16767e+06
   11.47            -1803.06             4.95848              105941        -5.75496e+06
   11.49             -2033.7             4.83341              117824        -6.36836e+06
   11.51             -2278.3             4.65555              130072        -6.98495e+06
   11.53            -2526.56             4.43677              142174        -7.58012e+06
   11.55            -2767.41             4.18619              153606        -8.12938e+06
   11.57            -2989.89             3.90988              163864        -8.61029e+06
   11.59            -3184.06             3.61139              172510        -9.00436e+06
   11.61            -3341.78             3.29241              179209        -9.29857e+06
   11.63            -3457.38             2.95352              183756        -9.48661e+06
   11.65            -3528.11             2.59479              186090         -9.5695e+06
   11.67            -3554.32             2.21635              186306        -9.55558e+06
   11.69            -3539.32             1.81881              184638        -9.45985e+06
   11.71            -3489.02             1.40364              181443         -9.3028e+06
   11.73            -3411.33            0.973523              177164        -9.10861e+06
   11.75            -3315.37            0.532678              172292        -8.90315e+06
   11.77            -3210.64           0.0871828              167323        -8.71176e+06
   11.79            -3106.13           -0.354866              162712        -8.55712e+06
   11.81            -3009.58           -0.783492              158838         -8.4573e+06
   11.83            -2926.84            -1.18745              155972        -8.42432e+06
   11.85            -2861.43            -1.55536              154257        -8.46316e+06
   11.87            -2814.41            -1.87709              153698         -8.5714e+06
   11.89            -2784.37            -2.14503              154169        -8.73945e+06
   11.91            -2767.77            -2.35474              155428        -8.95136e+06
   11.93            -2759.32            -2.50487              157139        -9.18613e+06
   11.95            -2752.63            -2.59639              158905        -9.41934e+06
   11.97            -2740.85            -2.63174              160304        -9.62501e+06
   11.99             -2717.3            -2.61404              160921         -9.7775e+06
   12.01            -2676.06            -2.54689              160382        -9.85332e+06
   12.03            -2612.52            -2.43439              158385        -9.83271e+06
   12.05            -2523.69            -2.28167              154714        -9.70089e+06
   12.07            -2408.39            -2.09535              149260        -9.44895e+06
   12.09            -2267.31            -1.88407              142019        -9.07423e+06
   12.11            -2102.89            -1.65874              133091        -8.58041e+06
   12.13            -1919.05            -1.43243              122670        -7.97704e+06
   12.15            -1720.86            -1.21994              111027        -7.27888e+06
   12.17            -1514.15            -1.03673               98492        -6.50492e+06
   12.19            -1305.08           -0.897448             85429.7        -5.67719e+06
   12.21            -1099.78           -0.813552               72220        -4.81959e+06
   12.23            -903.965           -0.789813             59236.7        -3.95659e+06
   12.25             -722.68           -0.818537             46829.2        -3.11205e+06
   12.27            -560.091           -0.868973             35308.6         -2.3082e+06
   12.29            -419.384           -0.865949             24935.8        -1.56467e+06
   12.31             -302.72           -0.644827             15915.5             -897844
   12.33            -211.267            0.137918             8391.34             -320232
   12.35            -145.274             2.12172              2445.6              159826
   12.37            -104.175             6.04894            -1899.83              538384
   12.39            -86.6991             11.2808            -4680.78              815945
   12.41            -90.9728             14.6882            -5987.34              997391
   12.43            -114.609             14.7971            -5960.13         1.09181e+06
   12.45            -154.767             13.3036            -4786.36         1.11226e+06
   12.47            -208.189             11.7198            -2695.94         1.07534e+06
   12.49            -271.224             10.5646             42.9259         1.00081e+06
   12.51            -339.843             9.92023             3128.88              910961
   12.53            -409.657             9.76193             6233.96              829907
   12.55            -475.971             10.0635             9012.05              782707
   12.57            -533.858             10.8256             11109.7              794346
   12.59             -578.28             12.0873             12179.2              888553
   12.61            -604.256             13.9409             11894.2         1.08654e+06
   12.63            -607.054             16.5653             9965.87         1.40567e+06
   12.65            -582.407             20.3033             6160.07         1.85823e+06
   12.67            -526.726             25.8679             312.256         2.45034e+06
   12.69            -437.266             34.9976            -7660.68          3.1812e+06
   12.71            -312.246             53.3307            -17753.9         4.04269e+06
   12.73            -150.869             115.435            -29875.1         5.01959e+06
   12.75             46.7609            -369.825            -43852.4         6.09033e+06
   12.77             279.827             -57.029            -59451.2         7.22833e+06
   12.79             547.088            -23.9032            -76396.9         8.40386e+06
   12.81             847.238            -9.84569            -94404.3         9.58637e+06
   12.83             1179.29            -1.27536             -113209         1.07469e+07
   12.85             1542.94             4.91424             -132597         1.18606e+07
   12.87             1938.83             9.75959             -152432         1.29089e+07
   12.89             2368.66             13.6537             -172671         1.38809e+07
   12.91             2835.15             16.7396             -193370         1.47745e+07
   12.93             3341.74             19.0568             -214676         1.55963e+07
   12.95             3892.06             20.6102             -236806         1.63605e+07
   12.97             4489.27             21.4078             -260007          1.7087e+07
   12.99             5135.18             21.4809             -284517         1.77987e+07
   13.01             5829.38             20.8922             -310509         1.85188e+07
   13.03             6568.39              19.735             -338042         1.92669e+07
   13.05             7344.94             18.1253             -367017         2.00564e+07
   13.07             8147.61             16.1912             -397139         2.08916e+07
   13.09             8960.67             14.0613             -427909         2.17664e+07
   13.11             9764.47              11.855             -458617         2.26634e+07
   13.13             10536.1             9.67543             -488377         2.35542e+07
   13.15             11250.6             7.60498             -516166         2.44016e+07
   13.17             11882.3             5.70413             -540889         2.51618e+07
   13.19             12406.5             4.01197             -561451         2.57882e+07
   13.21             12801.2             2.54825             -576842         2.62349e+07
   13.23             13048.4             1.31637             -586209         2.64607e+07
   13.25             13135.8            0.306751             -588925         2.64327e+07
   13.27             13057.5           -0.499786             -584641         2.61295e+07
   13.29             12814.8            -1.12871             -573315         2.55423e+07
   13.31             12415.5            -1.60888             -555218         2.46767e+07
   13.33             11874.2            -1.96994             -530919         2.35518e+07
   13.35             11210.7            -2.24026             -501241         2.21987e+07
   13.37             10448.9            -2.44529             -467204         2.06586e+07
   13.39              9614.9            -2.60629             -429952         1.89794e+07
   13.41             8735.79            -2.73963             -390678         1.72122e+07
   13.43             7837.59            -2.85637             -350548         1.54082e+07
   13.45             6943.91            -2.96227             -310626         1.36147e+07
   13.47             6074.77            -3.05813             -271818         1.18729e+07
   13.49             5245.72            -3.14041             -234834         1.02153e+07
   13.51             4467.43            -3.20212             -200157         8.66444e+06
   13.53             3745.64             -3.2338             -168043         7.23268e+06
   13.55             3081.51            -3.22472             -138531         5.92225e+06
   13.57             2472.27            -3.16388             -111473         4.72652e+06
   13.59             1912.11            -3.04106            -86574.7         3.63177e+06
   13.61             1393.24            -2.84759            -63445.2          2.6194e+06
   13.63             907.054            -2.57703            -41650.9         1.66844e+06
   13.65             445.201            -2.22629              -20770              758085
   13.67            0.620084            -4.70123            -442.313             -129852
   13.69            -431.623            -1.26575             19588.4        -1.00889e+06
   13.71            -853.723           -0.675274             39442.7        -1.88625e+06
   13.73             -1264.8           -0.016011             59087.2        -2.76188e+06
   13.75            -1660.83            0.699236             78330.4        -3.62808e+06
   13.77            -2034.92              1.4556             96832.9        -4.46996e+06
   13.79            -2377.78              2.2361              114132        -5.26642e+06
   13.81            -2678.52              3.0224              129677        -5.99181e+06
   13.83            -2925.51             3.79591              142874        -6.61802e+06
   13.85            -3107.47             4.53888              153139        -7.11681e+06
   13.87            -3214.44             5.23566              159942        -7.46229e+06
   13.89            -3238.79             5.87389              162863        -7.63315e+06
   13.91            -3175.98             6.44576              161627         -7.6147e+06
   13.93            -3025.19             6.94938              156137        -7.40023e+06
   13.95            -2789.57             7.39085              146484        -6.99192e+06
   13.97            -2476.28             7.78798              132956        -6.40092e+06
   13.99            -2096.11             8.17904              116019        -5.64678e+06
   14.01            -1662.92             8.64689             96288.1        -4.75623e+06
   14.03            -1192.79             9.40404             74493.6        -3.76148e+06
   14.05             -703.05             11.2352             51431.4        -2.69811e+06
   14.07            -211.171             22.0315             27914.2        -1.60281e+06
   14.09             266.228            -6.28044             4722.97             -511175
   14.11             714.342              1.2524            -17436.9              544275
   14.13             1120.94             2.63347            -37971.6         1.53576e+06
   14.15             1476.89             3.01617            -56423.7         2.44137e+06
   14.17             1776.44             3.04025            -72485.3         3.24568e+06
   14.19             2017.25             2.88702            -85999.4         3.93983e+06
   14.21             2200.14             2.62781            -96950.2         4.52109e+06
   14.23             2328.73             2.29657             -105445         4.99208e+06
   14.25             2408.81             1.91229             -111688         5.35971e+06
   14.27              2447.8             1.48813             -115955         5.63389e+06
   14.29             2454.04             1.03606             -118564         5.82641e+06
   14.31             2436.25            0.569698             -119848         5.94974e+06
   14.33             2402.98            0.105771             -120136         6.01619e+06
   14.35             2362.26           -0.335506             -119736         6.03726e+06
   14.37             2321.31            -0.73156             -118924         6.02329e+06
   14.39             2286.46            -1.06012             -117942         5.98336e+06
   14.41             2263.07            -1.30322             -117001         5.92546e+06
   14.43             2255.69            -1.45161             -116282         5.85685e+06
   14.45             2268.13            -1.50846             -115948          5.7844e+06
   14.47             2303.72            -1.49067             -116153         5.71514e+06
   14.49             2365.44            -1.42711             -117047         5.65659e+06
   14.51             2456.14            -1.35373             -118792         5.61717e+06
   14.53             2578.72            -1.30691             -121559         5.60637e+06
   14.55             2736.27            -1.31697             -125539         5.63488e+06
   14.57             2932.18            -1.40353             -130942          5.7145e+06
   14.59              3170.2            -1.57387             -137999         5.85802e+06
   14.61             3454.48            -1.82414             -146957         6.07892e+06
   14.63             3789.56            -2.14266             -158077         6.39104e+06
   14.65             4180.26            -2.51404             -171625         6.80809e+06
   14.67             4631.58            -2.92304             -187865         7.34323e+06
   14.69             5148.48            -3.35739             -207049         8.00853e+06
   14.71             5735.67            -3.80918             -229405          8.8145e+06
   14.73             6397.37            -4.27496             -255130         9.76972e+06
   14.75             7137.11            -4.75489             -284378         1.08806e+07
   14.77             7957.71            -5.25121             -317264         1.21515e+07
   14.79             8861.33            -5.76652             -353868          1.3585e+07
   14.81             9849.98            -6.30221             -394254         1.51834e+07
   14.83             10926.2            -6.85709             -438511         1.69495e+07
   14.85             12094.5            -7.42653             -486800           1.889e+07
   14.87             13362.6            -8.00204             -539427         2.10177e+07
   14.89             14743.9            -8.57124             -596926         2.33554e+07
   14.91             16259.3            -9.11837             -660159           2.594e+07
   14.93             17939.9            -9.62496             -730403         2.88258e+07
   14.95             19828.7            -10.0708             -809438         3.20885e+07
   14.97             21982.1            -10.4349             -899600         3.58269e+07
   14.99             24470.4            -10.6964        -1.00379e+06          4.0163e+07
   15.01             27376.8            -10.8349        -1.12545e+06         4.52404e+07
   15.03             30794.9            -10.8304        -1.26841e+06         5.12187e+07
   15.05             34824.4            -10.6625        -1.43675e+06         5.82655e+07
   15.07             39565.2            -10.3092        -1.63448e+06         6.65452e+07
   15.09             45109.6            -9.74351        -1.86525e+06         7.62041e+07
   15.11             51534.1            -8.93097        -2.13199e+06          8.7355e+07
   15.13             58890.5            -7.82474        -2.43644e+06          1.0006e+08
   15.15             67197.8            -6.36094        -2.77889e+06         1.14315e+08
   15.17             76435.3            -4.45353        -3.15779e+06         1.30037e+08
   15.19             86539.2            -1.98963        -3.56959e+06         1.47051e+08
   15.21             97401.9             1.17391        -4.00871e+06         1.65095e+08
   15.23              108875             5.21124        -4.46761e+06         1.83818e+08
   15.25              120780             10.3242        -4.93715e+06         2.02796e+08
   15.27              132914              16.733        -5.40704e+06         2.21548e+08
   15.29              145072             24.6595        -5.86649e+06         2.39568e+08
   15.31              157059             34.3006        -6.30494e+06         2.56354e+08
   15.33              168707             45.7926        -6.71282e+06          2.7144e+08
   15.35              179892             59.1671        -7.08226e+06          2.8443e+08
   15.37              190543             74.3022         -7.4077e+06         2.95027e+08
   15.39              200646             90.8776        -7.68627e+06         3.03052e+08
   15.41              210246             108.345        -7.91791e+06         3.08454e+08
   15.43              219434             125.925        -8.10526e+06         3.11315e+08
   15.45              228333             142.648        -8.25322e+06          3.1183e+08
   15.47              237079             157.439        -8.36828e+06         3.10293e+08
   15.49              245789              169.24        -8.45766e+06         3.07063e+08
   15.51              254543             177.162         -8.5284e+06         3.02525e+08
   15.53              263357             180.612        -8.58643e+06          2.9706e+08
   15.55              272165             179.383        -8.63575e+06         2.91004e+08
   15.57              280810             173.679        -8.67789e+06         2.84626e+08
   15.59              289045             164.064        -8.71158e+06         2.78102e+08
   15.61              296542              151.36        -8.73281e+06          2.7151e+08
   15.63              302910             136.519        -8.73515e+06         2.64832e+08
   15.65              307728             120.494        -8.71044e+06         2.57969e+08
   15.67              310578             104.142        -8.64961e+06         2.50758e+08
   15.69              311075             88.1618        -8.54368e+06         2.43004e+08
   15.71              308912             73.0629        -8.38475e+06         2.34508e+08
   15.73              303879             59.1721         -8.1669e+06         2.25095e+08
   15.75              295894             46.6552        -7.88688e+06          2.1464e+08
   15.77              285005             35.5513        -7.54458e+06         2.03086e+08
   15.79              271398             25.8092        -7.14321e+06         1.90455e+08
   15.81              255383             17.3219        -6.68913e+06         1.76846e+08
   15.83              237373             9.95531        -6.19141e+06         1.62434e+08
   15.85              217860              3.5699        -5.66129e+06         1.47452e+08
   15.87              197378            -1.96445        -5.11132e+06         1.32177e+08
   15.89              176476            -6.75999        -4.55457e+06         1.16906e+08
   15.91              155680            -10.9079         -4.0038e+06         1.01937e+08
   15.93              135471            -14.4788        -3.47075e+06         8.75489e+07
   15.95              116259            -17.5265        -2.96554e+06         7.39851e+07
   15.97             98371.5            -20.0928        -2.49627e+06         6.14418e+07
   15.99             82046.3            -22.2134         -2.0688e+06         5.00605e+07
   16.01               67429            -23.9237        -1.68671e+06          3.9926e+07
   16.03             54580.9            -25.2642        -1.35142e+06         3.10675e+07
   16.05             43488.2            -26.2857        -1.06242e+06         2.34648e+07
   16.07             34075.7            -27.0538             -817620         1.70553e+07
   16.09             26221.7            -27.6544             -613710         1.17439e+07
   16.11             19772.7            -28.2028             -446535         7.41257e+06
   16.13             14557.3            -28.8607             -311471         3.93027e+06
   16.15             10398.3            -29.8774             -203740         1.16162e+06
   16.17             7122.64            -31.6972             -118674        -1.02547e+06
   16.19             4568.76            -35.2989            -51925.5         -2.7538e+06
   16.21             2591.59            -43.6227             393.648        -4.13243e+06
   16.23             1065.49            -72.6249             41625.2        -5.25379e+06
   16.25            -114.645             446.048             74526.9        -6.19227e+06
   16.27            -1033.77             30.8011              101277        -7.00399e+06
   16.29            -1758.04             10.0175              123507        -7.72768e+06
   16.31            -2336.89             3.02282              142363        -8.38639e+06
   16.33            -2805.49           -0.281384              158574        -8.98972e+06
   16.35             -3187.4            -2.08354              172534        -9.53663e+06
   16.37            -3497.18            -3.13598              184382        -1.00183e+07
   16.39             -3742.8            -3.76478              194085         -1.0421e+07
   16.41            -3927.84            -4.13231              201507        -1.07292e+07
   16.43            -4053.39            -4.32697              206477        -1.09277e+07
   16.45            -4119.54             -4.3999              208842        -1.10041e+07
   16.47            -4126.59            -4.38213              208504        -1.09502e+07
   16.49            -4075.87            -4.29349              205452        -1.07629e+07
   16.51            -3970.19            -4.14746              199775        -1.04453e+07
   16.53            -3814.09            -3.95402              191665        -1.00061e+07
   16.55            -3613.76            -3.72123              181409        -9.45917e+06
   16.57            -3376.77             -3.4561              169372        -8.82277e+06
   16.59            -3111.73            -3.16503              155977        -8.11825e+06
   16.61            -2827.75            -2.85397              141677        -7.36869e+06
   16.63            -2533.99             -2.5284              126929        -6.59747e+06
   16.65            -2239.12            -2.19336              112170        -5.82697e+06
   16.67            -1950.98            -1.85334             97792.1        -5.07736e+06
   16.69            -1676.15            -1.51228             84127.5        -4.36569e+06
   16.71            -1419.78            -1.17353             71433.3        -3.70518e+06
   16.73            -1185.44           -0.839821             59885.7        -3.10484e+06
   16.75            -975.099           -0.513245             49577.8        -2.56935e+06
   16.77            -789.168           -0.195117               40522         -2.0992e+06
   16.79            -626.657            0.114212             32656.8        -1.69101e+06
   16.81             -485.33            0.415856             25855.2        -1.33801e+06
   16.83            -361.906            0.713925             19936.3        -1.03059e+06
   16.85            -252.255             1.02135             14675.2             -756995
   16.87            -151.569             1.39015             9814.51             -503825
   16.89             -54.495             2.27431              5072.1             -256633
   16.91             44.8004          -0.0083485              147.52            -305.118
   16.93             152.641             1.03812            -5275.91              280702
   16.95             275.944              1.2699            -11533.2              602333
   16.97             422.429             1.35075            -18984.7              981165
   16.99             600.925             1.34647            -28028.8         1.43489e+06
   17.01              821.79              1.2764            -39119.2         1.98309e+06
   17.03              1097.4             1.15078            -52787.5         2.64822e+06
   17.05             1442.71            0.977025            -69667.9          3.4568e+06
   17.07             1875.77            0.760921            -90523.2         4.44067e+06
   17.09             2418.21            0.506602             -116268         5.63816e+06
   17.11             3095.54            0.216632             -147984         7.09496e+06
   17.13             3937.14           -0.107574             -186925         8.86452e+06
   17.15             4975.92           -0.464975             -234504         1.10076e+07
   17.17             6247.43           -0.853915             -292258         1.35911e+07
   17.19             7788.39            -1.27118             -361782         1.66849e+07
   17.21             9634.59            -1.71128             -444644         2.03586e+07
   17.23             11818.2            -2.16618             -542262         2.46757e+07
   17.25             14364.5            -2.62536             -655761         2.96878e+07
   17.27             17288.4            -3.07639             -785814         3.54264e+07
   17.29             20590.4            -3.50573             -932473         4.18966e+07
   17.31             24253.7            -3.89972        -1.09502e+06         4.90688e+07
   17.33             28240.8            -4.24565        -1.27182e+06         5.68739e+07
   17.35             32492.2             -4.5327        -1.46027e+06         6.51984e+07
   17.37             36925.6            -4.75276        -1.65675e+06         7.38839e+07
   17.39             41437.5            -4.90098        -1.85669e+06         8.27288e+07
   17.41             45905.8            -4.97605        -2.05469e+06         9.14945e+07
   17.43             50195.3            -4.98023        -2.24476e+06         9.99146e+07
   17.45             54163.5            -4.91907        -2.42055e+06         1.07708e+08
   17.47             57668.8            -4.80102        -2.57579e+06         1.14593e+08
   17.49             60578.3            -4.63684        -2.70454e+06         1.20306e+08
   17.51             62776.3            -4.43895        -2.80164e+06         1.24614e+08
   17.53             64171.9            -4.22084        -2.86303e+06         1.27334e+08
   17.55             64704.7            -3.99645        -2.88599e+06         1.28343e+08
   17.57             64349.3            -3.77964        -2.86935e+06         1.27587e+08
   17.59             63116.7            -3.58383        -2.81358e+06         1.25083e+08
   17.61             61053.9            -3.42153        -2.72073e+06         1.20919e+08
   17.63             58240.4            -3.30414        -2.59432e+06         1.15251e+08
   17.65               54783            -3.24157        -2.43906e+06         1.08285e+08
   17.67             50808.7            -3.24199        -2.26059e+06         1.00272e+08
   17.69             46457.3            -3.31151        -2.06514e+06         9.14863e+07
   17.71             41872.8             -3.4539        -1.85909e+06         8.22137e+07
   17.73             37195.7            -3.67032        -1.64873e+06         7.27337e+07
   17.75             32556.2            -3.95915        -1.43989e+06         6.33078e+07
   17.77             28068.9            -4.31595         -1.2377e+06          5.4168e+07
   17.79             23829.2            -4.73362        -1.04649e+06         4.55097e+07
   17.81             19910.5            -5.20275             -869602         3.74874e+07
   17.83             16364.8             -5.7122             -709434         3.02137e+07
   17.85             13222.7            -6.24978             -567458         2.37607e+07
   17.87               10496            -6.80287             -444304         1.81633e+07
   17.89             8180.46            -7.35856             -339883         1.34244e+07
   17.91             6258.78            -7.90256             -253518          9.5204e+06
   17.93             4703.96            -8.41558             -184089         6.40705e+06
   17.95             3482.43            -8.86432             -130156         4.02487e+06
   17.97             2556.83            -9.18388            -90090.2         2.30433e+06
   17.99             1888.35            -9.25162            -62167.4         1.17021e+06
   18.01             1438.69            -8.87614            -44656.8              545280
   18.03             1171.45            -7.87441              -35886              353363
   18.05             1053.23            -6.27787            -34291.3              521743
   18.07             1054.32            -4.42732            -38453.1              983047
   18.09             1149.11            -2.69785            -47120.5         1.67665e+06
   18.11             1316.28            -1.21519            -59224.5         2.54962e+06
   18.13             1538.75            0.103678            -73881.7          3.5572e+06
   18.15             1803.51             1.39916            -90390.6         4.66287e+06
   18.17              2101.3             2.79321             -108218         5.83792e+06
   18.19             2426.17             4.37753             -126981         7.06066e+06
   18.21             2774.98               6.222             -146419         8.31514e+06
   18.23             3146.77             8.38427             -166365         9.58973e+06
   18.25             3542.31             10.9169             -186710         1.08754e+07
   18.27             3963.45             13.8726             -207372         1.21641e+07
   18.29              4412.8             17.3078             -228265         1.34472e+07
   18.31             4893.38             21.2851             -249271         1.47144e+07
   18.33             5408.56             25.8746             -270228         1.59526e+07
   18.35             5962.13             31.1518             -290918         1.71462e+07
   18.37             6558.58             37.1919             -311067         1.82769e+07
   18.39             7203.54             44.0587             -330364         1.93247e+07
   18.41             7904.23             51.7883             -348475         2.02693e+07
   18.43             8669.94             60.3687             -365074         2.10914e+07
   18.45             9512.38             69.7187             -379867         2.17742e+07
   18.47             10445.6             79.6718             -392626         2.23054e+07
   18.49               11486             89.9724             -403210         2.26778e+07
   18.51               12651             100.289             -411583         2.28909e+07
   18.53             13958.2             110.244             -417820         2.29506e+07
   18.55             15423.6             119.466             -422109         2.28695e+07
   18.57             17059.1             127.634             -424729         2.26658e+07
   18.59             18870.9             134.524             -426038         2.23622e+07
   18.61             20856.2             140.033             -426435         2.19848e+07
   18.63             23002.1             144.183             -426335         2.15608e+07
   18.65             25283.7             147.101             -426138         2.11175e+07
   18.67             27663.3             148.993             -426197         2.06807e+07
   18.69             30091.4             150.104             -426812         2.02736e+07
   18.71             32507.7             150.693             -428213         1.99162e+07
   18.73             34844.4             151.003             -430575         1.96256e+07
   18.75             37029.6             151.254             -434032          1.9416e+07
   18.77             38992.7             151.631             -438715         1.93004e+07
   18.79             40668.8             152.293             -444789         1.92917e+07
   18.81             42004.9             153.378             -452501         1.94045e+07
   18.83             42964.2             155.008             -462229         1.96572e+07
   18.85             43530.4             157.294             -474528         2.00737e+07
   18.87             43710.1              160.33             -490153         2.06849e+07
   18.89             43534.4             164.175             -510082         2.15292e+07
   18.91             43057.6             168.821             -535504         2.26529e+07
   18.93             42354.7             174.146             -567784         2.41087e+07
   18.95             41517.1             179.852             -608397         2.59534e+07
   18.97             40646.7              185.42             -658838         2.82443e+07
   18.99             39848.6             190.088             -720496         3.10347e+07
   19.01               39224             192.899             -794517         3.43675e+07
   19.03             38862.2             192.838             -881655         3.82699e+07
   19.05             38834.2             189.042             -982115         4.27461e+07
   19.07             39186.3              181.04        -1.09543e+06         4.77724e+07
   19.09             39936.3             168.915        -1.22034e+06         5.32919e+07
   19.11               41071             153.323        -1.35476e+06         5.92125e+07
   19.13             42546.1             135.347        -1.49575e+06         6.54063e+07
   19.15             44288.9             116.254         -1.6396e+06         7.17121e+07
   19.17             46201.9              97.248        -1.78196e+06         7.79412e+07
   19.19             48169.4             79.3026        -1.91803e+06         8.38857e+07
   19.21             50064.8             63.0812        -2.04281e+06         8.93293e+07
   19.23             51759.6             48.9438        -2.15139e+06         9.40594e+07
   19.25             53131.3             36.9992        -2.23927e+06         9.78809e+07
   19.27               54072             27.1749        -2.30261e+06         1.00629e+08
   19.29             54495.3              19.285        -2.33852e+06         1.02178e+08
   19.31             54341.8             13.0853        -2.34526e+06         1.02456e+08
   19.33             53582.6             8.31417        -2.32235e+06         1.01442e+08
   19.35             52219.9              4.7195        -2.27057e+06         9.91736e+07
   19.37             50286.4             2.07445        -2.19196e+06         9.57434e+07
   19.39             47841.8             0.18503        -2.08965e+06         9.12899e+07
   19.41             44967.8            -1.10817        -1.96762e+06         8.59908e+07
   19.43             41761.6            -1.93203        -1.83047e+06         8.00496e+07
   19.45             38329.5            -2.38513        -1.68312e+06         7.36833e+07
   19.47             34779.9            -2.54319         -1.5305e+06         6.71093e+07
   19.49             31216.6            -2.46469        -1.37729e+06         6.05327e+07
   19.51             27733.6            -2.19632        -1.22767e+06         5.41364e+07
   19.53             24410.5             -1.7778        -1.08518e+06         4.80733e+07
   19.55             21310.7            -1.24573             -952571         4.24611e+07
   19.57             18478.9           -0.636356             -831782         3.73803e+07
   19.59             15942.4            0.013075             -723932         3.28745e+07
   19.61             13711.1             0.66448             -629387         2.89539e+07
   19.63             11780.9              1.2807             -547864         2.55995e+07
   19.65             10135.1             1.82865             -478546         2.27686e+07
   19.67             8748.27             2.28319             -420224         2.04018e+07
   19.69             7588.71             2.63045             -371425         1.84283e+07
   19.71             6621.29             2.86927             -330542         1.67729e+07
   19.73             5809.93             3.00951             -295945         1.53599e+07
   19.75             5119.57             3.06762             -266067         1.41183e+07
   19.77             4517.83              3.0605             -239484         1.29846e+07
   19.79             3976.09             2.99983             -214956         1.19052e+07
   19.81             3470.38             2.88766             -191472         1.08377e+07
   19.83             2981.77             2.71256             -168258         9.75159e+06
   19.85             2496.55             2.44313             -144787         8.62841e+06
   19.87             2006.17             2.00975             -120772         7.46093e+06
   19.89             1506.94             1.24517              -96146         6.25226e+06
   19.91             999.595            -0.36266            -71040.8         5.01449e+06
   19.93             488.632            -5.46358            -45755.7           3.767e+06
   19.95             -18.382             273.299            -20720.1         2.53462e+06
   19.97            -511.671             14.4633             3546.06         1.34557e+06
   19.99            -980.155              9.9709               26476              229395
